Time (ka)	Benthic d18O (per mil)	Standard error (per mil)
0.564	3.520	0.22
2.689	3.570	0.22
3.099	3.560	0.22
4.131	3.510	0.22
5.134	3.700	0.22
5.617	3.910	0.22
5.917	3.810	0.22
7.103	3.830	0.22
7.579	4.230	0.22
8.589	3.820	0.22
10.024	4.710	0.22
10.076	5.140	0.22
11.553	4.820	0.22
12.469	4.820	0.22
13.048	5.220	0.22
14.006	5.380	0.22
14.914	5.460	0.22
15.196	5.250	0.22
15.414	5.390	0.22
16.821	5.350	0.22
17.359	5.340	0.22
17.785	5.190	0.22
18.229	5.300	0.22
19.636	5.220	0.22
19.804	5.130	0.22
19.804	5.220	0.22
20.375	5.090	0.22
22.249	5.120	0.22
22.964	4.980	0.22
23.859	5.030	0.22
24.626	5.070	0.22
24.969	4.970	0.22
25.75	4.940	0.22
26.585	4.940	0.22
26.585	4.940	0.22
26.833	4.870	0.22
27.694	4.970	0.22
28.2	4.890	0.22
29.04	5.030	0.22
29.815	4.920	0.22
31.246	4.790	0.22
31.246	4.830	0.22
31.431	4.840	0.22
31.583	4.870	0.22
33.046	4.810	0.22
33.453	4.830	0.22
33.528	4.850	0.22
34.662	4.860	0.22
35.472	4.650	0.22
36.277	4.820	0.22
37.892	4.790	0.22
37.892	4.720	0.22
39.361	4.780	0.22
39.508	4.720	0.22
40.074	4.780	0.22
41.123	4.930	0.22
41.306	4.860	0.22
42.281	4.730	0.22
42.738	4.720	0.22
43.25	4.740	0.22
43.25	4.860	0.22
44.354	4.650	0.22
44.487	4.450	0.22
45.181	4.610	0.22
46.04	4.600	0.22
46.625	4.890	0.22
46.758	4.790	0.22
47.773	4.610	0.22
48.431	4.850	0.22
49.049	4.570	0.22
49.507	4.760	0.22
50.236	4.860	0.22
51.24	4.900	0.22
51.339	4.540	0.22
52.042	4.730	0.22
52.973	4.750	0.22
53.629	4.730	0.22
53.629	4.670	0.22
53.847	4.460	0.22
54.707	4.650	0.22
55.111	4.670	0.22
55.92	4.740	0.22
56.44	4.750	0.22
57.458	4.750	0.22
58.173	4.800	0.22
58.21	4.670	0.22
59.264	4.800	0.22
59.907	4.850	0.22
60.5	4.980	0.22
61.069	5.110	0.22
61.069	4.940	0.22
61.64	4.720	0.22
62.79	4.970	0.22
62.875	4.970	0.22
63.373	4.810	0.22
64.681	5.010	0.22
65.081	4.920	0.22
66.486	5.020	0.22
67.371	4.770	0.22
67.371	4.780	0.22
69.093	4.820	0.22
69.432	4.560	0.22
70.097	4.650	0.22
70.827	4.600	0.22
70.827	4.510	0.22
72.533	4.410	0.22
72.533	4.660	0.22
72.683	4.520	0.22
73.409	4.500	0.22
73.409	4.560	0.22
75.6	4.440	0.22
76.085	4.440	0.22
76.735	4.230	0.22
78.667	4.370	0.22
78.761	4.230	0.22
80.787	4.290	0.22
80.787	4.130	0.22
81.438	4.120	0.22
81.733	4.360	0.22
84.114	4.220	0.22
84.8	3.930	0.22
84.8	4.270	0.22
84.84	4.210	0.22
86.791	4.240	0.22
87.867	4.090	0.22
88.892	4.510	0.22
88.892	4.530	0.22
90.933	4.680	0.22
94	4.420	0.22
94	4.270	0.22
95.583	4.590	0.22
95.856	4.320	0.22
96.118	4.480	0.22
98.055	4.500	0.22
98.236	4.190	0.22
100.526	4.340	0.22
102.472	4.110	0.22
102.998	4.210	0.22
102.998	4.220	0.22
102.998	4.360	0.22
103.389	4.010	0.22
105.516	4.100	0.22
105.987	3.980	0.22
105.987	4.280	0.22
108.225	4.130	0.22
108.74	4.070	0.22
109.195	4.360	0.22
110.935	4.130	0.22
110.935	4.260	0.22
111.493	4.340	0.22
111.493	4.300	0.22
111.517	4.310	0.22
113.645	4.390	0.22
113.839	4.610	0.22
116.064	4.620	0.22
116.193	4.280	0.22
116.957	4.420	0.22
118.191	4.370	0.22
120.318	4.430	0.22
120.395	4.120	0.22
120.963	4.580	0.22
122.446	3.810	0.22
122.446	4.210	0.22
123.348	4.210	0.22
123.521	3.930	0.22
123.521	3.860	0.22
124.573	3.320	0.22
125.733	3.890	0.22
126.646	3.430	0.22
126.7	3.830	0.22
127.737	3.410	0.22
127.844	3.580	0.22
128.822	3.210	0.22
128.822	3.850	0.22
129.47	3.740	0.22
129.643	3.520	0.22
130.746	4.280	0.22
130.746	3.370	0.22
131.443	3.550	0.22
132.67	4.230	0.22
132.935	4.990	0.22
133.242	4.810	0.22
134.554	5.160	0.22
134.668	5.320	0.22
135.041	5.210	0.22
136.371	5.240	0.22
138.188	5.200	0.22
140.09	5.300	0.22
141.717	5.190	0.22
142.062	5.070	0.22
142.89	5.180	0.22
144.034	5.190	0.22
146.006	4.980	0.22
146.006	4.810	0.22
146.824	5.000	0.22
147.15	5.110	0.22
147.978	4.790	0.22
148.432	4.960	0.22
148.961	4.970	0.22
149.753	4.920	0.22
150.772	5.100	0.22
152.934	4.730	0.22
153.893	5.100	0.22
154.703	5.030	0.22
155.865	4.900	0.22
156.205	5.120	0.22
156.31	4.820	0.22
157.837	4.770	0.22
158.016	4.790	0.22
159.809	4.990	0.22
160.214	4.710	0.22
161.781	4.850	0.22
161.781	4.790	0.22
162.485	4.770	0.22
164.911	4.800	0.22
167.083	4.820	0.22
167.336	4.620	0.22
168.899	4.640	0.22
169.762	4.690	0.22
170.714	4.630	0.22
172.187	4.720	0.22
174.345	4.960	0.22
174.613	4.540	0.22
176.161	4.850	0.22
177.038	4.700	0.22
179.464	4.860	0.22
179.792	4.690	0.22
181.889	4.910	0.22
181.889	4.730	0.22
185.238	4.900	0.22
186.74	4.770	0.22
188.869	4.660	0.22
190.685	4.100	0.22
190.685	4.240	0.22
190.916	4.360	0.22
191.591	4.120	0.22
191.591	4.530	0.22
193.629	3.900	0.22
194.017	4.210	0.22
196.2	3.920	0.22
196.2	4.210	0.22
196.418	4.040	0.22
198.682	3.830	0.22
198.682	3.850	0.22
198.682	4.090	0.22
198.88	4.000	0.22
201.169	3.890	0.22
201.169	3.940	0.22
201.169	3.940	0.22
201.612	3.690	0.22
201.813	3.690	0.22
203.656	3.970	0.22
204.747	4.010	0.22
207.706	3.940	0.22
208.382	3.980	0.22
210.904	3.920	0.22
214.857	4.100	0.22
214.857	3.820	0.22
217.298	3.740	0.22
217.845	4.100	0.22
218.334	3.690	0.22
220.413	3.780	0.22
220.637	3.850	0.22
220.695	3.810	0.22
223.078	4.090	0.22
223.185	3.940	0.22
225.675	3.970	0.22
225.742	4.850	0.22
225.742	4.660	0.22
225.742	4.700	0.22
228.165	4.680	0.22
228.165	4.750	0.22
228.902	4.540	0.22
231.083	4.690	0.22
233.378	4.280	0.22
234.197	4.550	0.22
235.793	4.620	0.22
237.348	4.630	0.22
238.232	4.210	0.22
238.913	4.140	0.22
240.829	4.100	0.22
241.303	4.180	0.22
241.303	4.440	0.22
243.105	3.690	0.22
243.105	3.590	0.22
243.455	3.840	0.22
243.859	3.510	0.22
245.024	4.290	0.22
246.143	3.780	0.22
246.143	4.510	0.22
246.593	4.670	0.22
248.427	4.700	0.22
250.711	4.560	0.22
251.938	4.930	0.22
252.712	4.980	0.22
254.163	4.970	0.22
255.772	4.930	0.22
256.403	4.870	0.22
256.859	4.890	0.22
257.718	5.070	0.22
257.757	4.710	0.22
258.643	4.910	0.22
258.643	4.810	0.22
259.28	4.890	0.22
260.098	4.750	0.22
260.098	4.630	0.22
260.883	4.720	0.22
261.7	4.720	0.22
261.728	4.870	0.22
262.238	4.670	0.22
263.123	4.800	0.22
263.713	4.810	0.22
264.123	4.820	0.22
264.856	4.800	0.22
265.363	4.840	0.22
266.543	4.750	0.22
267.236	4.940	0.22
267.603	4.830	0.22
267.684	4.640	0.22
268.862	4.950	0.22
268.862	4.890	0.22
269.589	4.840	0.22
269.589	5.020	0.22
269.669	4.960	0.22
269.843	4.860	0.22
271.013	4.920	0.22
273.162	4.770	0.22
273.588	4.800	0.22
273.588	4.680	0.22
273.64	4.850	0.22
274.167	4.960	0.22
275.312	4.860	0.22
277.461	4.690	0.22
278.618	4.890	0.22
284.576	4.480	0.22
284.576	4.470	0.22
288.392	4.300	0.22
289.424	4.230	0.22
290.867	4.530	0.22
291.849	3.940	0.22
293.342	4.540	0.22
293.342	4.670	0.22
294.273	4.290	0.22
295.817	4.480	0.22
296.697	4.860	0.22
298.045	4.790	0.22
300.765	4.500	0.22
301.545	4.730	0.22
303.346	4.600	0.22
306.918	4.670	0.22
306.918	4.240	0.22
309.175	4.360	0.22
311.748	4.200	0.22
313.707	4.680	0.22
316.893	4.300	0.22
318.469	3.920	0.22
319.466	4.170	0.22
320.85	3.980	0.22
322.039	3.960	0.22
322.039	3.930	0.22
323.29	4.120	0.22
326.281	3.550	0.22
328.62	3.580	0.22
329.274	3.600	0.22
332.267	3.460	0.22
334.689	3.240	0.22
335.669	3.390	0.22
336.905	3.360	0.22
336.905	3.610	0.22
338.9	4.170	0.22
338.9	4.190	0.22
343.553	4.990	0.22
343.553	4.860	0.22
345.767	5.200	0.22
348.168	4.420	0.22
350.591	4.820	0.22
350.594	5.200	0.22
352.683	4.760	0.22
353.014	4.830	0.22
354.771	4.960	0.22
354.771	4.820	0.22
355.437	4.780	0.22
356.859	4.760	0.22
356.859	4.800	0.22
357.86	4.910	0.22
361.036	4.880	0.22
365.126	4.830	0.22
365.213	5.010	0.22
367.549	4.780	0.22
367.549	4.870	0.22
369.971	4.670	0.22
372.394	4.710	0.22
373.566	4.870	0.22
374.575	4.610	0.22
375.655	4.750	0.22
376.133	4.650	0.22
377.24	4.550	0.22
377.743	4.500	0.22
378.919	4.580	0.22
379.663	4.350	0.22
379.831	4.570	0.22
379.831	4.490	0.22
382.086	4.680	0.22
384.49	4.580	0.22
384.49	4.540	0.22
384.506	4.220	0.22
386.929	4.600	0.22
387.276	4.420	0.22
389.352	4.250	0.22
389.352	4.350	0.22
390.273	4.200	0.22
390.356	4.350	0.22
391.775	4.310	0.22
392.361	4.330	0.22
394.197	4.240	0.22
394.197	4.350	0.22
396.62	4.080	0.22
398.716	4.320	0.22
398.716	4.180	0.22
399.116	4.160	0.22
399.351	4.140	0.22
399.908	4.100	0.22
402.313	3.740	0.22
404.678	3.320	0.22
404.678	3.570	0.22
405.23	3.950	0.22
405.23	3.840	0.22
407.063	3.420	0.22
408.143	3.340	0.22
408.643	4.040	0.22
409.296	3.460	0.22
409.296	3.370	0.22
410.063	3.350	0.22
410.87	3.430	0.22
411.344	3.320	0.22
412.85	3.870	0.22
412.85	3.810	0.22
412.91	3.710	0.22
414.333	3.910	0.22
414.333	4.020	0.22
414.893	3.490	0.22
415.592	5.040	0.22
416.416	4.290	0.22
416.416	5.100	0.22
416.936	3.980	0.22
416.936	3.740	0.22
417.167	5.170	0.22
418.741	5.410	0.22
418.849	3.590	0.22
418.849	4.330	0.22
418.979	4.090	0.22
421.039	4.170	0.22
422.268	5.090	0.22
422.268	4.430	0.22
422.704	4.240	0.22
423.008	5.500	0.22
423.034	5.260	0.22
423.543	5.460	0.22
423.543	5.460	0.22
423.78	5.340	0.22
423.979	5.230	0.22
424.799	5.260	0.22
425.218	5.400	0.22
425.292	5.330	0.22
425.678	5.330	0.22
425.793	5.320	0.22
426.308	5.210	0.22
426.527	5.120	0.22
426.527	5.190	0.22
426.804	5.220	0.22
427.375	4.670	0.22
428.224	4.850	0.22
428.571	4.920	0.22
429.073	4.580	0.22
429.409	4.840	0.22
429.923	4.820	0.22
429.931	4.980	0.22
430.686	4.830	0.22
430.975	4.820	0.22
431.31	5.030	0.22
431.31	5.020	0.22
431.34	5.170	0.22
431.62	5.030	0.22
432.69	4.740	0.22
432.851	5.050	0.22
432.851	5.090	0.22
433.327	5.020	0.22
433.327	4.930	0.22
434.069	4.940	0.22
434.363	4.940	0.22
435.448	4.990	0.22
435.875	5.030	0.22
437.902	4.970	0.22
437.902	4.910	0.22
438.08	4.860	0.22
441.073	5.100	0.22
442.855	4.690	0.22
444.244	4.650	0.22
447.63	4.640	0.22
453.756	4.860	0.22
454.243	4.760	0.22
454.243	4.930	0.22
456.927	4.960	0.22
461.803	4.340	0.22
463.268	4.800	0.22
466.439	4.640	0.22
466.439	4.850	0.22
469.61	4.480	0.22
472.78	4.510	0.22
473.902	4.320	0.22
473.902	4.400	0.22
483.161	4.130	0.22
484.117	3.990	0.22
484.117	4.130	0.22
486.166	4.200	0.22
488.588	3.780	0.22
488.674	3.850	0.22
491.01	3.860	0.22
492.171	3.900	0.22
492.887	3.940	0.22
492.887	4.160	0.22
493.432	3.720	0.22
494.885	4.250	0.22
496.058	4.010	0.22
497.943	4.610	0.22
499.226	4.540	0.22
499.244	4.010	0.22
500.081	4.590	0.22
500.081	4.550	0.22
500.335	3.980	0.22
501.364	4.210	0.22
502.151	3.920	0.22
502.219	4.620	0.22
503.502	4.540	0.22
504.221	3.810	0.22
504.357	4.460	0.22
505.64	4.510	0.22
505.64	4.510	0.22
506.495	4.450	0.22
507.718	4.080	0.22
507.778	4.420	0.22
508.633	4.380	0.22
509.916	4.270	0.22
510.771	4.410	0.22
510.884	4.220	0.22
510.884	4.240	0.22
511.605	4.280	0.22
512.054	4.240	0.22
512.904	4.380	0.22
512.909	4.340	0.22
514.192	4.190	0.22
514.923	4.370	0.22
515.047	4.270	0.22
517.025	4.180	0.22
517.288	3.930	0.22
517.288	4.320	0.22
518.098	4.400	0.22
518.098	4.130	0.22
519.221	4.240	0.22
519.613	4.240	0.22
519.613	4.460	0.22
520.515	4.180	0.22
521.008	4.320	0.22
521.938	4.320	0.22
522.604	4.020	0.22
523.333	4.390	0.22
523.333	4.340	0.22
524.263	4.450	0.22
525.625	4.250	0.22
525.625	4.160	0.22
525.658	4.420	0.22
526.381	4.110	0.22
526.461	4.210	0.22
526.588	4.820	0.22
527.497	4.590	0.22
527.983	4.780	0.22
528.268	3.990	0.22
528.535	4.320	0.22
528.937	4.880	0.22
529.571	4.440	0.22
530.156	4.780	0.22
530.156	4.460	0.22
530.477	4.510	0.22
530.477	4.690	0.22
530.789	4.740	0.22
530.789	4.780	0.22
531.503	4.690	0.22
532.113	4.920	0.22
532.294	4.730	0.22
532.294	4.790	0.22
533.043	5.130	0.22
533.043	4.880	0.22
533.496	4.850	0.22
534.07	5.050	0.22
534.156	4.940	0.22
534.696	4.860	0.22
535.61	4.890	0.22
535.899	4.950	0.22
536.198	4.880	0.22
536.198	4.820	0.22
536.636	4.800	0.22
537.098	4.980	0.22
537.098	4.850	0.22
538.176	4.800	0.22
538.241	4.930	0.22
538.301	4.900	0.22
539.202	4.780	0.22
539.202	4.820	0.22
539.5	4.850	0.22
540.363	4.950	0.22
540.762	4.780	0.22
540.762	4.920	0.22
541.667	4.840	0.22
541.667	4.790	0.22
542.048	4.830	0.22
542.712	4.810	0.22
543.33	4.780	0.22
543.98	4.720	0.22
544.616	4.610	0.22
545.06	4.790	0.22
545.901	4.550	0.22
547.866	4.500	0.22
549.894	4.390	0.22
549.894	4.500	0.22
550.108	4.590	0.22
551.921	4.550	0.22
551.925	4.650	0.22
553.944	4.220	0.22
555.629	4.310	0.22
557.402	4.470	0.22
560.19	3.720	0.22
561.049	4.590	0.22
562.8	4.360	0.22
563.873	3.940	0.22
563.873	4.350	0.22
566.615	4.490	0.22
567.867	4.370	0.22
568.023	4.180	0.22
568.405	3.940	0.22
570.307	3.720	0.22
571.171	3.900	0.22
571.171	3.890	0.22
571.602	4.240	0.22
572.214	3.540	0.22
574.117	3.630	0.22
574.319	3.990	0.22
575.337	3.790	0.22
576.023	3.700	0.22
577.811	3.740	0.22
577.811	3.690	0.22
577.926	3.720	0.22
579.071	3.510	0.22
579.832	3.610	0.22
581.451	4.210	0.22
581.735	3.910	0.22
581.735	4.720	0.22
582.806	3.720	0.22
582.906	3.720	0.22
583.642	4.490	0.22
585.09	4.840	0.22
585.544	4.270	0.22
586.343	4.570	0.22
586.91	4.390	0.22
587.451	4.680	0.22
588.73	4.650	0.22
588.812	4.680	0.22
588.996	4.250	0.22
590.459	4.580	0.22
590.459	4.670	0.22
590.47	4.500	0.22
592.028	4.920	0.22
593.099	4.240	0.22
593.211	4.590	0.22
593.586	4.590	0.22
594.833	4.390	0.22
594.833	4.690	0.22
595.144	4.450	0.22
595.325	4.280	0.22
595.74	4.180	0.22
596.098	4.472	0.22
596.759	4.420	0.22
597.438	4.130	0.22
598.08	4.300	0.22
598.38	4.400	0.22
598.411	4.300	0.22
599.402	4.398	0.22
599.702	4.370	0.22
600.063	4.340	0.26
601.1	4.170	0.26
601.1	4.370	0.26
601.385	4.240	0.26
602.398	4.400	0.26
602.706	4.345	0.26
602.93	4.420	0.26
602.93	4.410	0.26
603.367	4.290	0.26
604.689	4.230	0.26
604.689	4.120	0.26
604.756	4.240	0.26
605.243	3.990	0.26
606.011	4.388	0.26
606.586	4.780	0.26
606.672	4.090	0.26
607.993	4.090	0.26
607.993	4.280	0.26
608.412	4.110	0.26
609.315	4.088	0.26
609.976	4.030	0.26
610.241	3.760	0.26
610.933	4.260	0.26
611.297	4.150	0.26
612.067	4.090	0.26
612.067	4.050	0.26
612.619	4.249	0.26
613.28	4.190	0.26
613.779	3.760	0.26
613.779	3.820	0.26
613.897	4.050	0.26
614.602	4.110	0.26
615.723	3.620	0.26
615.723	3.790	0.26
615.923	3.976	0.26
616.584	3.920	0.26
616.624	3.840	0.26
617.553	3.850	0.26
617.906	3.670	0.26
617.906	3.950	0.26
619.228	4.032	0.26
619.379	3.950	0.26
619.469	3.650	0.26
619.838	3.980	0.26
620.955	4.100	0.26
621.257	4.290	0.26
622.322	4.271	0.26
622.383	4.050	0.26
623.011	4.210	0.26
623.458	5.380	0.26
625.417	4.330	0.26
625.417	4.030	0.26
625.616	5.070	0.26
625.767	4.106	0.26
626.456	4.050	0.26
627.769	5.430	0.26
627.833	5.120	0.26
628.45	5.230	0.26
629.211	5.393	0.26
629.9	5.330	0.26
629.923	5.470	0.26
631.278	5.410	0.26
631.483	5.260	0.26
632.08	5.430	0.26
632.656	5.453	0.26
633.222	5.400	0.26
633.984	5.530	0.26
634.028	5.410	0.26
634.111	5.480	0.26
635	5.270	0.26
635.444	5.210	0.26
635.826	5.420	0.26
635.953	5.250	0.26
636.333	5.370	0.26
637.222	5.273	0.26
637.621	5.460	0.26
637.621	5.160	0.26
637.667	5.220	0.26
637.921	5.310	0.26
638.556	5.420	0.26
639.419	5.260	0.26
639.419	5.260	0.26
639.444	5.198	0.26
639.889	5.140	0.26
639.89	5.330	0.26
640.778	5.130	0.26
641.214	5.320	0.26
641.667	5.095	0.26
641.859	5.230	0.26
642.111	5.040	0.26
643	5.260	0.26
643.012	5.200	0.26
643.827	5.160	0.26
643.889	5.188	0.26
644.333	5.130	0.26
644.807	5.110	0.26
645.222	5.120	0.26
645.985	5.210	0.26
646.111	5.079	0.26
646.556	5.020	0.26
646.605	5.090	0.26
647.444	5.090	0.26
648.333	5.037	0.26
648.399	5.130	0.26
648.529	5.010	0.26
648.529	4.920	0.26
648.903	4.980	0.26
650.198	5.030	0.26
650.292	4.980	0.26
651.072	4.990	0.26
651.681	5.115	0.26
651.776	5.070	0.26
652.375	5.050	0.26
653.255	4.930	0.26
653.361	4.950	0.26
654.73	4.930	0.26
655.153	5.057	0.26
655.847	5.000	0.26
656.159	4.860	0.26
656.209	4.970	0.26
657.236	4.950	0.26
657.684	4.910	0.26
658.625	4.922	0.26
658.703	4.880	0.26
659.163	4.810	0.26
659.319	4.870	0.26
660.639	4.910	0.26
660.708	4.940	0.26
661.246	5.090	0.26
662.097	5.083	0.26
662.117	4.720	0.26
662.117	4.530	0.26
662.792	5.020	0.26
663.593	4.830	0.26
663.79	4.860	0.26
664.181	5.010	0.26
665.071	4.880	0.26
665.569	4.748	0.26
666.264	4.690	0.26
666.547	4.770	0.26
668.035	5.010	0.26
669.042	4.804	0.26
669.526	4.900	0.26
669.526	5.000	0.26
669.715	4.910	0.26
669.715	4.960	0.26
669.736	4.740	0.26
671.016	4.700	0.26
672.208	4.836	0.26
672.51	4.760	0.26
672.78	4.780	0.26
673.097	4.850	0.26
673.924	4.850	0.26
674.001	4.910	0.26
675.495	4.840	0.26
676.478	4.750	0.26
676.985	4.730	0.26
678.479	4.400	0.26
679.97	4.490	0.26
679.97	4.640	0.26
680.789	4.911	0.26
681.361	4.610	0.26
682.505	4.840	0.26
682.954	4.450	0.26
683.242	4.780	0.26
683.242	4.740	0.26
684.221	4.610	0.26
685.365	4.560	0.26
685.365	4.790	0.26
685.939	4.350	0.26
686.223	4.800	0.26
686.623	4.430	0.26
686.795	4.500	0.26
686.831	4.200	0.26
688.028	4.110	0.26
688.028	4.050	0.26
689.37	4.415	0.26
689.786	4.010	0.26
689.9	4.240	0.26
689.942	4.360	0.26
690.216	3.980	0.26
691.937	3.920	0.26
692.23	4.556	0.26
692.802	4.500	0.26
694.502	3.840	0.26
694.54	4.370	0.26
695.069	4.359	0.26
695.636	4.300	0.26
696.205	3.900	0.26
696.768	4.260	0.26
696.845	3.750	0.26
696.845	4.110	0.26
697.901	4.181	0.26
698.467	4.120	0.26
698.76	3.930	0.26
699.512	3.720	0.26
699.6	4.020	0.26
699.6	3.970	0.26
700.463	4.040	0.26
701.6	3.840	0.26
702.592	4.080	0.26
702.592	3.960	0.26
702.933	3.860	0.26
703.018	4.180	0.26
704.242	3.983	0.26
704.848	3.920	0.26
706.061	3.870	0.26
707.273	4.003	0.26
707.879	3.950	0.26
710.303	4.004	0.26
710.462	4.600	0.26
710.909	3.940	0.26
712.121	4.090	0.26
712.398	4.340	0.26
713.333	4.236	0.26
713.939	4.180	0.26
714.333	4.520	0.26
714.72	4.030	0.26
715.151	4.140	0.26
716.364	4.201	0.26
716.97	4.140	0.26
718.182	4.360	0.26
718.204	4.650	0.26
718.591	4.890	0.26
719.394	4.377	0.26
719.485	4.600	0.26
720	4.320	0.26
720.14	4.830	0.26
721.272	4.460	0.26
722.075	4.840	0.26
722.212	4.920	0.26
722.462	4.860	0.26
722.544	4.280	0.26
724.007	4.690	0.26
724.562	4.920	0.26
725.057	4.761	0.26
725.193	4.820	0.26
725.193	4.810	0.26
725.447	4.700	0.26
726.094	4.900	0.26
726.379	4.730	0.26
727.006	4.741	0.26
727.396	4.680	0.26
727.565	4.550	0.26
727.626	4.780	0.26
727.626	4.660	0.26
727.803	4.650	0.26
728.176	4.480	0.26
728.752	4.690	0.26
728.956	4.358	0.26
729.159	4.720	0.26
729.346	4.300	0.26
729.938	4.280	0.26
730.125	4.650	0.26
730.175	4.400	0.26
730.691	4.520	0.26
730.905	4.587	0.26
731.124	4.470	0.26
731.295	4.530	0.26
732.075	4.440	0.26
732.223	4.360	0.26
732.223	4.400	0.26
732.31	4.100	0.26
732.548	4.320	0.26
732.854	4.411	0.26
733.244	4.360	0.26
733.755	4.430	0.26
734.024	4.450	0.26
734.683	4.430	0.26
734.804	4.222	0.26
734.92	4.400	0.26
735.193	4.160	0.26
735.288	4.400	0.26
735.973	4.470	0.26
736.753	4.480	0.26
736.82	4.420	0.26
737.055	4.360	0.26
737.143	4.420	0.26
737.922	4.430	0.26
738.242	4.360	0.26
738.702	4.542	0.26
739.092	4.480	0.26
739.428	4.370	0.26
739.665	4.380	0.26
739.872	4.480	0.26
739.884	4.500	0.26
740.62	4.970	0.26
740.651	4.453	0.26
741.041	4.400	0.26
741.417	4.320	0.26
741.821	4.450	0.26
742.601	4.350	0.26
742.962	5.010	0.26
742.999	4.290	0.26
743.045	4.900	0.26
744.525	4.740	0.26
745.76	4.820	0.26
746.053	4.742	0.26
746.068	4.870	0.26
746.817	4.690	0.26
747.57	4.990	0.26
748.345	4.970	0.26
748.345	4.980	0.26
749.833	4.730	0.26
749.873	4.850	0.26
750.285	4.530	0.26
750.637	4.790	0.26
752.095	4.850	0.26
752.165	4.820	0.26
753.693	4.554	0.26
754.358	4.720	0.26
754.457	4.500	0.26
754.81	4.850	0.26
755.483	4.810	0.26
755.985	4.720	0.26
757.513	4.722	0.26
758.277	4.660	0.26
758.882	4.680	0.26
758.882	4.760	0.26
759.805	4.680	0.26
761.145	4.420	0.26
761.332	4.666	0.26
762.096	4.610	0.26
763.407	4.390	0.26
763.624	4.800	0.26
765.152	4.603	0.26
765.916	4.540	0.26
767.444	4.520	0.26
767.932	4.220	0.26
768.036	4.400	0.26
768.972	4.278	0.26
769.736	4.220	0.26
769.785	4.490	0.26
771.264	4.490	0.26
771.536	4.350	0.26
772.792	4.387	0.26
773.287	3.970	0.26
773.556	4.330	0.26
774.313	4.340	0.26
775.084	4.040	0.26
776.612	4.148	0.26
776.789	4.220	0.26
777.376	4.090	0.26
777.451	4.120	0.26
780.432	3.792	0.26
781.196	3.730	0.26
782.041	4.110	0.26
782.723	3.930	0.26
783.728	4.020	0.26
784.251	3.970	0.26
785.015	3.910	0.26
786.543	3.800	0.26
786.866	3.690	0.26
788.069	3.658	0.26
788.804	3.600	0.26
789.006	3.830	0.26
789.343	3.690	0.26
789.343	3.830	0.26
789.343	3.770	0.26
790.276	3.810	0.26
790.692	4.990	0.26
791.747	3.911	0.26
791.889	3.820	0.26
792.482	3.860	0.26
792.517	4.880	0.26
796.584	5.010	0.26
796.982	4.740	0.26
798.493	5.170	0.26
800.118	5.140	0.26
800.443	5.000	0.26
801.744	5.070	0.26
801.744	4.650	0.26
801.819	5.000	0.26
804.206	5.060	0.26
804.206	4.880	0.26
804.994	4.880	0.26
806.593	4.980	0.26
806.619	4.680	0.26
806.944	4.940	0.26
808.244	4.350	0.26
808.244	4.820	0.26
808.981	4.800	0.26
809.526	4.192	0.26
809.869	4.620	0.26
809.961	3.900	0.26
810.194	4.840	0.26
810.194	4.850	0.26
811.368	4.890	0.26
811.494	4.690	0.26
811.494	4.550	0.26
811.701	4.628	0.26
812.136	4.570	0.26
813.119	4.250	0.26
813.444	4.490	0.26
813.755	4.570	0.26
813.875	4.556	0.26
814.31	4.500	0.26
814.744	4.320	0.26
816.05	4.397	0.26
816.485	4.340	0.26
818.225	4.210	0.26
818.66	4.150	0.26
819.646	4.130	0.26
820.983	4.126	0.26
821.245	3.940	0.26
821.652	4.070	0.26
822.87	4.300	0.26
822.989	4.150	0.26
823.195	3.680	0.26
823.303	3.910	0.26
824.327	4.049	0.26
824.995	3.990	0.26
826.12	4.250	0.26
826.332	4.210	0.26
827.67	4.199	0.26
828.077	4.310	0.26
828.338	4.140	0.26
828.819	4.200	0.26
829.089	4.330	0.26
830.464	4.360	0.26
831.013	4.223	0.26
831.347	4.170	0.26
831.518	4.120	0.26
831.518	4.130	0.26
831.788	4.390	0.26
832.852	4.030	0.26
832.867	4.230	0.26
833.019	4.360	0.26
834.216	4.070	0.26
834.216	4.240	0.26
834.356	3.941	0.26
834.69	3.880	0.26
838.093	4.070	0.26
838.535	4.230	0.26
839.029	4.669	0.26
840.225	4.400	0.26
842.953	4.110	0.26
844.019	4.164	0.26
844.518	4.100	0.26
844.721	4.020	0.26
844.721	3.870	0.26
846.93	3.880	0.26
847.372	3.800	0.26
849.01	4.129	0.26
849.725	3.780	0.26
849.725	3.720	0.26
850.008	4.070	0.26
851.349	3.650	0.26
851.791	3.660	0.26
854	3.906	0.26
854.764	3.850	0.26
855.615	4.120	0.26
856.908	4.050	0.26
857.818	4.156	0.26
858.582	4.100	0.26
858.846	3.660	0.26
861.754	3.760	0.26
862.018	4.130	0.26
862.077	3.620	0.26
863.369	3.640	0.26
863.435	3.820	0.26
864.985	3.870	0.26
865.308	4.870	0.26
865.836	3.620	0.26
866.478	3.480	0.26
866.6	4.840	0.26
868.215	4.910	0.26
868.538	4.990	0.26
869.522	5.060	0.26
869.654	4.790	0.26
870.477	4.880	0.26
871.769	5.090	0.26
872.565	5.080	0.26
873.062	5.010	0.26
874.677	4.750	0.26
875	5.080	0.26
875.686	5.110	0.26
876.981	4.970	0.26
877.196	5.010	0.26
879.117	5.010	0.26
879.117	5.020	0.26
879.117	4.020	0.26
879.953	4.890	0.26
880.855	4.940	0.26
884.514	4.970	0.26
884.906	4.800	0.26
884.906	4.770	0.26
888.132	4.840	0.26
889.408	4.970	0.26
891.654	4.770	0.26
892.839	4.860	0.26
896.272	4.860	0.26
898.909	4.630	0.26
899.277	4.690	0.26
899.773	4.640	0.26
899.937	4.510	0.26
899.937	4.800	0.26
901.758	4.590	0.26
903.119	4.590	0.26
903.756	4.450	0.26
904.239	4.260	0.26
904.735	4.440	0.26
906.72	4.180	0.26
907.33	4.290	0.26
907.33	4.640	0.26
907.574	4.480	0.26
909.2	4.400	0.26
911.392	4.480	0.26
911.54	4.250	0.26
911.681	4.170	0.26
911.681	4.110	0.26
914.162	4.190	0.26
914.659	4.300	0.26
915.21	4.200	0.26
915.329	4.398	0.26
916.171	4.340	0.26
916.327	4.180	0.26
916.327	3.980	0.26
916.366	4.100	0.26
918.567	4.150	0.26
918.567	4.160	0.26
918.943	4.378	0.26
919.636	4.320	0.26
920.425	4.360	0.26
920.425	4.380	0.26
920.634	4.140	0.26
921.615	4.140	0.26
922.408	4.307	0.26
922.47	4.600	0.26
923.102	4.250	0.26
924.518	4.560	0.26
924.902	4.900	0.26
925.874	4.532	0.26
926.438	4.480	0.26
928.58	4.903	0.26
929.115	4.840	0.26
929.768	4.670	0.26
929.768	4.540	0.26
930.186	4.800	0.26
931.257	4.742	0.26
931.417	4.550	0.26
931.792	4.690	0.26
932.031	4.310	0.26
932.863	4.780	0.26
933.065	4.520	0.26
933.934	4.686	0.26
934.385	4.410	0.26
934.469	4.630	0.26
934.714	3.990	0.26
934.714	4.280	0.26
935.54	4.620	0.26
935.54	4.310	0.26
936.363	4.520	0.26
936.611	4.249	0.26
937.146	4.190	0.26
939.176	4.530	0.26
939.387	4.270	0.26
939.773	4.200	0.26
940.47	4.140	0.26
941.667	4.200	0.26
941.667	3.960	0.26
941.864	4.310	0.26
942.229	4.050	0.26
943.258	4.027	0.26
943.651	4.040	0.26
943.955	3.970	0.26
944.158	4.140	0.26
945.072	4.100	0.26
945.35	4.150	0.26
946.493	4.050	0.26
946.649	3.890	0.26
946.744	4.007	0.26
947.441	3.950	0.26
947.914	4.040	0.26
949.14	3.980	0.26
949.336	3.800	0.26
950.23	4.017	0.26
950.757	3.530	0.26
950.927	3.960	0.26
951.63	3.740	0.26
952.178	3.620	0.26
952.321	3.790	0.26
953.715	3.759	0.26
954.121	3.670	0.26
954.121	3.370	0.26
954.412	3.700	0.26
955.021	3.570	0.26
955.021	3.630	0.26
955.806	3.660	0.26
955.806	3.680	0.26
956.442	3.560	0.26
956.442	3.750	0.26
956.612	3.410	0.26
957.201	3.606	0.26
957.863	3.310	0.26
957.898	3.550	0.26
959.211	3.370	0.26
959.417	3.210	0.26
959.5	3.630	0.26
961.278	3.579	0.26
961.5	3.210	0.26
962.167	3.520	0.26
963.583	4.740	0.26
963.816	3.960	0.26
965.667	3.770	0.26
965.722	3.995	0.26
966.611	3.940	0.26
967.75	4.370	0.26
968.355	4.730	0.26
968.355	4.780	0.26
969.37	4.270	0.26
970.057	4.782	0.26
970.311	4.820	0.26
970.311	4.520	0.26
970.614	4.260	0.26
970.631	4.730	0.26
971.311	4.360	0.26
971.78	4.650	0.26
972.311	4.740	0.26
972.515	4.560	0.26
972.929	4.511	0.26
973.504	4.450	0.26
974.311	4.590	0.26
974.415	3.800	0.26
974.653	4.300	0.26
975.311	4.420	0.26
975.311	4.430	0.26
975.802	4.269	0.26
976.311	4.510	0.26
976.316	3.900	0.26
976.377	4.210	0.26
977.311	4.020	0.26
977.526	4.450	0.26
978.216	4.030	0.26
978.311	3.910	0.26
978.675	4.308	0.26
979.561	4.250	0.26
979.7	4.140	0.26
981.513	4.070	0.26
981.513	4.060	0.26
981.74	3.930	0.26
981.74	4.010	0.26
981.937	3.860	0.26
982.94	3.970	0.26
983.688	4.026	0.26
984.563	3.970	0.26
985.34	4.450	0.26
985.789	4.220	0.26
988.044	4.630	0.26
988.063	4.316	0.26
988.937	4.020	0.26
990.061	4.160	0.26
990.111	4.390	0.26
991.161	4.207	0.26
991.711	4.150	0.26
991.822	4.430	0.26
992.343	4.400	0.26
993.533	4.350	0.26
993.911	4.618	0.26
994.461	4.320	0.26
995.021	4.300	0.26
995.244	4.390	0.26
995.561	4.370	0.26
996.661	4.200	0.26
997.211	4.140	0.26
997.7	4.300	0.26
998.666	3.780	0.26
998.666	4.320	0.26
998.666	4.100	0.26
999.411	4.148	0.26
999.991	4.090	0.26
1000.415	3.990	0.26
1000.415	3.970	0.26
1000.459	3.940	0.26
1001.472	4.090	0.26
1002.541	3.950	0.26
1002.541	3.890	0.26
1002.541	4.020	0.26
1002.956	4.123	0.26
1003.446	3.950	0.26
1003.446	4.040	0.26
1003.698	4.070	0.26
1004.506	4.130	0.26
1005.182	4.150	0.26
1005.182	4.190	0.26
1006.009	4.320	0.26
1006.665	4.394	0.26
1007.407	4.090	0.26
1007.511	4.250	0.26
1009.013	4.540	0.26
1009.508	4.090	0.26
1010.375	4.156	0.26
1010.515	4.430	0.26
1011.117	4.100	0.26
1012.017	4.580	0.26
1012.497	4.350	0.26
1013.603	4.300	0.26
1014.26	4.305	0.26
1015.123	4.240	0.26
1015.349	4.480	0.26
1017.095	4.100	0.26
1018.204	4.410	0.26
1018.572	4.122	0.26
1018.841	3.860	0.26
1019.435	4.070	0.26
1020.587	4.160	0.26
1021.251	3.980	0.26
1022.334	3.790	0.26
1022.884	3.932	0.26
1023.747	3.870	0.26
1024.473	3.830	0.26
1026.613	3.980	0.26
1027.082	3.908	0.26
1027.344	4.000	0.26
1027.831	3.850	0.26
1028.753	3.840	0.26
1030.688	4.053	0.26
1030.752	4.010	0.26
1031.381	3.990	0.26
1032.682	4.300	0.26
1032.731	4.080	0.26
1034.151	4.416	0.26
1034.797	4.460	0.26
1034.844	4.360	0.26
1036.919	4.560	0.26
1037.614	4.708	0.26
1037.755	4.780	0.26
1038.307	4.650	0.26
1039.891	4.630	0.26
1040.291	4.780	0.26
1041.077	4.441	0.26
1041.769	4.380	0.26
1042.828	4.610	0.26
1044.136	4.680	0.26
1044.54	4.623	0.26
1045.232	4.560	0.26
1045.365	4.630	0.26
1047.901	4.640	0.26
1048.003	4.594	0.26
1048.38	4.490	0.26
1048.695	4.540	0.26
1050.438	4.630	0.26
1051.465	4.607	0.26
1052.158	4.550	0.26
1053.206	4.650	0.26
1053.55	4.530	0.26
1054.928	4.449	0.26
1055.621	4.390	0.26
1056.806	4.800	0.26
1056.87	4.380	0.26
1061.57	3.990	0.26
1061.589	3.974	0.26
1062.206	3.910	0.26
1063.632	4.460	0.26
1063.883	3.830	0.26
1064.203	3.920	0.26
1064.673	3.993	0.26
1065.29	3.940	0.26
1066.792	3.860	0.26
1067.303	3.830	0.26
1067.757	3.801	0.26
1068.374	3.740	0.26
1069.951	3.390	0.26
1070.412	3.490	0.26
1070.412	3.540	0.26
1070.841	3.715	0.26
1071.458	3.660	0.26
1073.376	3.500	0.26
1073.465	3.900	0.26
1073.825	3.567	0.26
1074.375	3.510	0.26
1076.172	3.800	0.26
1076.237	3.540	0.26
1076.575	3.999	0.26
1077.125	3.940	0.26
1079.01	3.790	0.26
1079.325	3.899	0.26
1079.875	3.840	0.26
1081.763	3.930	0.26
1081.782	4.130	0.26
1082.075	4.053	0.26
1082.625	4.000	0.26
1084.745	4.240	0.26
1084.826	4.210	0.26
1085.357	4.165	0.26
1086.262	4.110	0.26
1088.471	4.300	0.26
1088.957	4.130	0.26
1089.881	4.362	0.26
1090.786	4.310	0.26
1092.196	4.200	0.26
1093.087	4.270	0.26
1093.087	3.870	0.26
1094.405	4.318	0.26
1095.309	4.260	0.26
1095.922	4.290	0.26
1097.217	4.380	0.26
1099.647	4.720	0.26
1101.348	4.490	0.26
1103.293	4.380	0.26
1103.308	4.272	0.26
1103.926	3.980	0.26
1105.037	4.310	0.26
1106.225	4.400	0.26
1106.394	4.409	0.26
1107.011	4.350	0.26
1108.432	3.920	0.26
1109.157	4.250	0.26
1109.478	4.387	0.26
1110.095	4.330	0.26
1111.827	3.540	0.26
1111.827	3.980	0.26
1112.088	3.920	0.26
1112.563	4.378	0.26
1113.18	4.320	0.26
1114.862	4.130	0.26
1115.257	4.100	0.26
1115.257	4.120	0.26
1115.695	3.891	0.26
1116.33	3.840	0.26
1117.408	4.350	0.26
1118.749	4.150	0.26
1118.868	4.117	0.26
1119.503	4.060	0.26
1119.955	4.340	0.26
1121.981	4.410	0.26
1122.042	4.469	0.26
1122.502	4.960	0.26
1122.676	4.410	0.26
1124.171	4.840	0.26
1125.049	4.930	0.26
1125.215	4.648	0.26
1125.849	4.590	0.26
1126.362	4.810	0.26
1127.596	4.350	0.26
1128.388	4.893	0.26
1128.552	4.550	0.26
1129.022	4.600	0.26
1130.743	4.440	0.26
1130.743	4.030	0.26
1131.561	4.744	0.26
1132.195	4.680	0.26
1132.689	4.460	0.26
1132.933	4.470	0.26
1134.734	4.656	0.26
1135.124	4.580	0.26
1135.236	4.570	0.26
1135.369	4.600	0.26
1138.686	4.281	0.26
1138.948	4.110	0.26
1138.948	4.210	0.26
1138.959	4.480	0.26
1139.614	4.220	0.26
1143.187	4.470	0.26
1143.327	4.348	0.26
1144.256	4.050	0.26
1147.414	4.130	0.26
1147.969	4.240	0.26
1148.773	4.170	0.26
1148.897	4.180	0.26
1151.641	4.020	0.26
1152.611	4.322	0.26
1153.539	4.030	0.26
1155.868	3.770	0.26
1157.252	4.078	0.26
1158.181	4.020	0.26
1158.597	3.770	0.26
1158.597	4.090	0.26
1160.096	3.730	0.26
1161.894	3.867	0.26
1162.823	3.810	0.26
1163.51	3.720	0.26
1166.536	3.811	0.26
1167.188	3.750	0.26
1167.712	3.770	0.26
1167.769	3.700	0.26
1168.692	3.780	0.26
1169.068	3.720	0.26
1170.17	3.750	0.26
1170.17	3.500	0.26
1170.573	3.864	0.26
1170.949	3.800	0.26
1172.453	4.112	0.26
1172.628	3.750	0.26
1172.628	4.130	0.26
1172.829	4.060	0.26
1174.333	3.880	0.26
1174.709	3.820	0.26
1175.086	3.970	0.26
1176.18	3.770	0.26
1176.214	3.946	0.26
1176.59	3.890	0.26
1177.545	3.920	0.26
1177.545	3.930	0.26
1178.109	3.886	0.26
1178.328	3.920	0.26
1178.546	3.830	0.26
1180.295	3.977	0.26
1180.309	3.660	0.26
1180.732	3.920	0.26
1181.233	3.910	0.26
1182.481	3.943	0.26
1182.918	3.880	0.26
1184.138	3.920	0.26
1184.138	3.860	0.26
1184.667	3.965	0.26
1185.104	3.910	0.26
1187.042	4.640	0.26
1187.11	4.607	0.26
1187.166	4.440	0.26
1187.623	4.410	0.26
1187.632	4.550	0.26
1188.592	4.630	0.26
1189.724	4.635	0.26
1189.947	4.520	0.26
1190.017	4.600	0.26
1190.247	4.580	0.26
1190.818	4.670	0.26
1191.443	4.710	0.26
1192.338	4.860	0.26
1192.852	4.710	0.26
1192.861	4.800	0.26
1192.868	4.590	0.26
1194.014	4.910	0.26
1194.294	4.650	0.26
1194.953	4.878	0.26
1195.476	4.820	0.26
1195.509	4.950	0.26
1196.55	4.870	0.26
1197.145	4.340	0.26
1197.567	4.755	0.26
1197.59	4.850	0.26
1198.103	4.690	0.26
1198.652	4.620	0.26
1198.959	4.710	0.26
1199.911	4.820	0.26
1200.495	4.730	0.26
1201.093	4.670	0.26
1201.577	4.890	0.26
1202.291	4.650	0.26
1203.485	4.716	0.26
1203.543	4.480	0.26
1204.083	4.660	0.26
1204.195	4.720	0.26
1204.671	4.620	0.26
1205.174	4.370	0.26
1206.804	4.510	0.26
1206.812	4.580	0.26
1207.05	4.730	0.26
1207.074	4.350	0.26
1208.435	4.420	0.26
1209.43	4.140	0.26
1209.668	4.240	0.26
1210.064	4.500	0.26
1210.065	3.920	0.26
1211.26	4.090	0.26
1211.696	4.310	0.26
1211.81	4.310	0.26
1212.524	4.470	0.26
1213.343	3.470	0.26
1215.291	4.170	0.26
1216.922	4.360	0.26
1217.396	4.490	0.26
1218.642	4.410	0.26
1218.793	3.950	0.26
1219.789	4.040	0.26
1220.722	3.880	0.26
1220.763	4.030	0.26
1222.082	3.850	0.26
1222.65	4.090	0.26
1222.682	4.140	0.26
1224.13	3.860	0.26
1224.578	3.780	0.26
1226.507	3.940	0.26
1226.639	3.920	0.26
1226.639	3.800	0.26
1227.497	3.980	0.26
1230.597	3.500	0.26
1230.863	3.590	0.26
1230.992	4.480	0.26
1232.292	3.570	0.26
1234.554	3.670	0.26
1234.661	3.560	0.26
1235.741	3.610	0.26
1236.149	3.800	0.26
1238.077	3.650	0.26
1238.506	3.250	0.26
1238.512	3.510	0.26
1240.006	3.810	0.26
1240.095	3.780	0.26
1242.351	3.790	0.26
1243.669	3.560	0.26
1243.863	3.940	0.26
1246.196	4.420	0.26
1250.355	4.770	0.26
1253.698	4.720	0.26
1256.785	4.970	0.26
1258.261	4.380	0.26
1259.824	4.160	0.26
1259.846	4.620	0.26
1261.878	4.270	0.26
1262.431	4.010	0.26
1262.908	4.410	0.26
1265.969	4.620	0.26
1265.987	3.710	0.26
1269.03	4.260	0.26
1270.771	4.130	0.26
1272.092	4.060	0.26
1275.153	4.040	0.26
1277.703	3.990	0.26
1278.215	3.880	0.26
1278.65	3.850	0.26
1278.695	3.920	0.26
1279.539	3.740	0.26
1280.454	3.830	0.26
1281.276	3.850	0.26
1281.376	3.700	0.26
1282.258	3.890	0.26
1282.519	3.930	0.26
1283.206	3.770	0.26
1284.033	3.900	0.26
1284.485	4.140	0.26
1284.988	3.820	0.26
1286.242	4.190	0.26
1287.535	4.060	0.26
1287.83	4.230	0.26
1289.284	4.100	0.26
1289.95	4.190	0.26
1291.175	4.390	0.26
1293.659	4.600	0.26
1294.52	4.020	0.26
1297.367	4.400	0.26
1300.112	3.940	0.26
1301.06	4.320	0.26
1301.167	4.340	0.26
1303.827	4.200	0.26
1304.61	4.340	0.26
1306.05	4.450	0.26
1306.932	4.140	0.26
1309.148	3.980	0.26
1309.411	4.000	0.26
1309.749	4.130	0.26
1310.817	3.870	0.26
1311.808	4.010	0.26
1312.223	3.970	0.26
1312.565	3.910	0.26
1313.629	4.030	0.26
1314.469	3.970	0.26
1315.035	4.030	0.26
1315.382	3.730	0.26
1316.484	3.950	0.26
1317.945	4.060	0.26
1317.969	3.620	0.26
1318.827	4.280	0.26
1319.053	4.410	0.26
1319.413	4.270	0.26
1319.686	3.530	0.26
1320.545	4.330	0.26
1320.617	4.350	0.26
1320.844	4.330	0.26
1321.404	4.240	0.26
1322.263	4.300	0.26
1322.275	4.190	0.26
1323.123	4.240	0.26
1323.706	4.290	0.26
1323.982	4.540	0.26
1324.841	4.410	0.26
1325.7	4.170	0.26
1326.559	4.500	0.26
1328.804	4.420	0.26
1329.281	4.770	0.26
1331.293	4.070	0.26
1333.782	4.510	0.26
1333.814	4.280	0.26
1338.347	4.170	0.26
1341.248	3.670	0.26
1342.88	4.450	0.26
1343.246	4.080	0.26
1343.737	3.770	0.26
1346.225	4.040	0.26
1347.413	4.230	0.26
1348.714	4.080	0.26
1350.869	3.600	0.26
1351.203	4.000	0.26
1351.946	4.160	0.26
1353.692	3.730	0.26
1356.181	3.720	0.26
1356.479	3.310	0.26
1358.492	3.230	0.26
1360.225	3.450	0.26
1360.226	3.290	0.26
1362.108	3.670	0.26
1362.966	4.050	0.26
1363.05	3.610	0.26
1365.272	3.840	0.26
1367.492	3.990	0.26
1368.436	4.210	0.26
1368.983	3.940	0.26
1371.188	4.070	0.26
1371.599	4.200	0.26
1371.965	4.080	0.26
1374.763	4.240	0.26
1376.437	4.370	0.26
1376.668	4.070	0.26
1377.927	4.430	0.26
1377.928	4.390	0.26
1379.409	4.610	0.26
1379.419	4.490	0.26
1380.91	4.520	0.26
1382.149	4.490	0.26
1382.401	4.220	0.26
1383.892	4.390	0.26
1384.255	4.620	0.26
1384.889	4.390	0.26
1385.383	4.430	0.26
1386.874	4.190	0.26
1387.418	4.100	0.26
1387.63	4.400	0.26
1388.365	4.070	0.26
1390.335	4.140	0.26
1390.541	3.970	0.26
1391.625	3.500	0.26
1393.275	4.100	0.26
1393.623	3.710	0.26
1394.925	4.070	0.26
1395.675	3.850	0.26
1396.574	3.940	0.26
1396.705	3.700	0.26
1398.224	3.930	0.26
1398.344	3.840	0.26
1399.413	3.800	0.26
1399.787	3.650	0.26
1401.523	3.600	0.26
1402.103	3.690	0.26
1403.503	3.810	0.26
1403.913	3.570	0.26
1404.509	3.150	0.26
1404.815	4.110	0.26
1406.802	4.040	0.26
1407.526	4.350	0.26
1408.155	3.870	0.26
1410.102	4.490	0.26
1410.238	4.430	0.26
1412.397	4.210	0.26
1412.95	4.460	0.26
1413.401	4.710	0.26
1414.212	4.220	0.26
1415.661	4.410	0.26
1415.758	4.490	0.26
1416.701	4.310	0.26
1417.304	4.420	0.26
1418.904	3.990	0.26
1421.207	4.320	0.26
1421.249	4.170	0.26
1423.732	3.940	0.26
1423.985	3.950	0.26
1424.372	3.970	0.26
1426.887	3.720	0.26
1427.495	3.840	0.26
1427.969	4.190	0.26
1430.617	3.660	0.26
1431.508	3.590	0.26
1431.954	3.790	0.26
1434.143	3.600	0.26
1435.939	2.990	0.26
1437.457	2.930	0.26
1438.071	3.470	0.26
1439.923	3.610	0.26
1441.556	3.030	0.26
1442	3.340	0.26
1444.973	3.400	0.26
1445.059	3.450	0.26
1447.809	3.370	0.26
1450.507	3.520	0.26
1452.1	4.140	0.26
1453.206	4.390	0.26
1454.086	4.540	0.26
1457.899	4.600	0.26
1460.135	4.600	0.26
1461.302	4.480	0.26
1464	4.390	0.26
1464.67	4.410	0.26
1465.691	4.040	0.26
1467.308	4.200	0.26
1467.86	4.340	0.26
1469.917	3.390	0.26
1470.617	3.880	0.26
1471.05	4.220	0.26
1473.925	3.970	0.26
1474.144	3.840	0.26
1474.239	3.980	0.26
1477.193	3.860	0.26
1477.429	3.590	0.26
1478.37	3.860	0.26
1481.372	3.540	0.26
1482.597	3.780	0.26
1483.649	3.570	0.26
1486.074	3.220	0.26
1487.644	3.460	0.26
1491.477	3.430	0.26
1491.733	3.110	0.26
1496.88	3.610	0.26
1506.396	3.530	0.26
1514.382	4.130	0.26
1517.044	4.090	0.26
1518.131	3.940	0.26
1518.74	3.780	0.26
1519.706	3.880	0.26
1520.614	3.970	0.26
1520.747	3.610	0.26
1522.368	4.140	0.26
1522.754	3.970	0.26
1523.098	3.660	0.26
1524.761	3.720	0.26
1525.03	4.150	0.26
1525.582	3.690	0.26
1528.065	4.020	0.26
1530.358	4.710	0.26
1530.367	4.140	0.26
1530.782	4.840	0.26
1532.396	4.130	0.26
1533.034	4.150	0.26
1534.425	4.660	0.26
1535.71	3.230	0.26
1536.681	4.790	0.26
1540.638	4.330	0.26
1541.143	4.270	0.26
1543.592	3.590	0.26
1543.681	4.100	0.26
1544.816	3.900	0.26
1547.462	4.120	0.26
1548.375	3.790	0.26
1548.375	4.270	0.26
1550.204	4.120	0.26
1550.923	3.700	0.26
1553.783	4.250	0.26
1556.993	4.140	0.26
1560.204	4.150	0.26
1561.328	3.570	0.26
1563.242	3.930	0.26
1564.799	3.800	0.26
1566.625	3.830	0.26
1567.115	3.700	0.26
1567.949	3.800	0.26
1569.686	3.970	0.26
1569.728	3.790	0.26
1572.257	4.340	0.26
1573.178	4.060	0.26
1574.828	4.680	0.26
1576.975	4.320	0.26
1577.4	4.410	0.26
1583.147	4.250	0.26
1583.682	4.170	0.26
1586.845	4.020	0.26
1586.991	3.970	0.26
1597.12	4.190	0.26
1598.222	3.930	0.26
1599.988	4.250	0.26
1600.762	3.990	0.26
1602.111	3.870	0.26
1602.855	4.010	0.26
1603.879	4.050	0.26
1605.722	3.640	0.26
1606	3.700	0.26
1607.327	3.700	0.26
1609.453	3.850	0.26
1609.523	3.920	0.26
1611.483	3.650	0.26
1613.046	3.800	0.26
1613.276	4.160	0.26
1615.638	3.920	0.26
1616.542	3.680	0.26
1617.048	4.120	0.26
1619.9	4.080	0.26
1620.588	3.870	0.26
1622.037	4.060	0.26
1623.257	3.780	0.26
1624.118	3.880	0.26
1624.281	3.960	0.26
1624.973	3.780	0.26
1625.946	3.840	0.26
1626.728	3.920	0.26
1627.621	3.730	0.26
1627.647	4.120	0.26
1628.251	4.040	0.26
1629.3	3.900	0.26
1630.975	4.350	0.26
1630.979	4.300	0.26
1631.176	4.070	0.26
1632.657	4.090	0.26
1634.348	4.060	0.26
1634.592	4.330	0.26
1635.27	3.410	0.26
1636.087	3.710	0.26
1637.42	3.900	0.26
1637.471	3.830	0.26
1637.827	3.710	0.26
1639.566	3.670	0.26
1639.671	3.710	0.26
1640.247	3.630	0.26
1641.168	3.510	0.26
1641.306	3.710	0.26
1641.907	3.660	0.26
1642.908	3.700	0.26
1643.075	3.770	0.26
1643.962	3.680	0.26
1644.759	3.500	0.26
1645.026	3.900	0.26
1645.254	3.600	0.26
1645.676	4.520	0.26
1646.835	4.260	0.26
1647.93	3.620	0.26
1648.644	3.590	0.26
1648.787	4.220	0.26
1650.454	4.400	0.26
1651.897	4.630	0.26
1654.072	4.430	0.26
1654.62	4.310	0.26
1655.007	4.580	0.26
1657.691	4.260	0.26
1657.965	3.460	0.26
1658.118	4.450	0.26
1659.5	4.200	0.26
1661.228	4.520	0.26
1663.118	4.330	0.26
1664.338	4.360	0.26
1664.928	4.450	0.26
1667.449	3.800	0.26
1668	4.250	0.26
1668.546	4.530	0.26
1670.356	4.460	0.26
1672.286	4.590	0.26
1674.268	4.040	0.26
1674.445	4.230	0.26
1674.452	4.070	0.26
1676.01	4.340	0.26
1677.077	3.950	0.26
1677.567	4.120	0.26
1678.759	4.040	0.26
1679.124	4.060	0.26
1680.916	3.920	0.26
1685.502	3.690	0.26
1686.911	3.820	0.26
1688.311	3.910	0.26
1691.119	3.850	0.26
1691.584	3.750	0.26
1693.857	3.760	0.26
1693.928	3.890	0.26
1694.698	3.770	0.26
1696.014	4.290	0.26
1696.736	3.830	0.26
1697.813	3.490	0.26
1699.545	4.110	0.26
1700.328	4.190	0.26
1700.928	3.820	0.26
1702.353	4.110	0.26
1702.485	3.930	0.26
1704.642	4.400	0.26
1705.213	4.630	0.26
1709.433	3.960	0.26
1710.949	4.360	0.26
1711.872	4.060	0.26
1713.653	3.660	0.26
1714.128	4.120	0.26
1714.311	3.760	0.26
1716.357	4.190	0.26
1716.357	3.880	0.26
1716.876	3.500	0.26
1719.476	3.600	0.26
1720.094	3.230	0.26
1722.827	3.820	0.26
1723.482	4.030	0.26
1725.177	4.130	0.26
1729.802	3.870	0.26
1732.086	3.920	0.26
1732.554	3.940	0.26
1733.92	3.970	0.26
1734.839	3.840	0.26
1735.586	3.890	0.26
1736.653	3.400	0.26
1739.476	4.620	0.26
1741.609	4.350	0.26
1742.388	4.630	0.26
1744.703	4.250	0.26
1745.952	4.050	0.26
1747.797	4.290	0.26
1748.656	4.850	0.26
1751.113	3.680	0.26
1753.517	4.480	0.26
1753.535	4.070	0.26
1755.658	4.060	0.26
1756.761	3.480	0.26
1760.005	3.230	0.26
1760.637	3.140	0.26
1763.249	3.370	0.26
1766.493	3.620	0.26
1767.739	3.430	0.26
1769.737	3.660	0.26
1773.143	3.610	0.26
1776.813	3.650	0.26
1780.484	3.480	0.26
1784.154	4.080	0.26
1787.824	4.110	0.26
1791.495	4.630	0.26
1793.525	4.660	0.26
1795.165	4.450	0.26
1796.376	3.580	0.26
1797	4.580	0.26
1798.926	4.040	0.26
1799.334	4.160	0.26
1799.979	3.950	0.26
1801.667	3.840	0.26
1806.333	4.050	0.26
1806.629	4.200	0.26
1807.426	3.940	0.26
1810.481	3.970	0.26
1811	4.070	0.26
1811.172	3.750	0.26
1814.11	3.740	0.26
1815.434	3.750	0.26
1815.5	3.750	0.26
1817.505	3.880	0.26
1819.442	3.850	0.26
1820	4.060	0.26
1820	4.090	0.26
1820.9	3.960	0.26
1823.351	4.020	0.26
1823.464	3.760	0.26
1824.725	3.680	0.26
1826.429	3.940	0.26
1827.513	3.660	0.26
1828.561	3.840	0.26
1829.507	4.970	0.26
1831.561	3.640	0.26
1832.014	3.980	0.26
1832.598	3.980	0.26
1835.51	4.310	0.26
1835.751	3.780	0.26
1836.335	3.750	0.26
1838.903	4.570	0.26
1839.424	4.350	0.26
1842.055	4.720	0.26
1843.264	4.350	0.26
1843.698	4.450	0.26
1844.727	4.320	0.26
1846.187	4.160	0.26
1846.332	4.330	0.26
1847.194	4.350	0.26
1848.676	3.930	0.26
1849.399	3.910	0.26
1849.661	4.240	0.26
1851.165	3.740	0.26
1852.128	4.230	0.26
1852.466	3.850	0.26
1854.741	4.160	0.26
1855.72	3.630	0.26
1855.888	3.940	0.26
1857.803	4.000	0.26
1858.277	3.910	0.26
1859.159	4.170	0.26
1860.667	3.890	0.26
1860.865	4.140	0.26
1862.598	4.240	0.26
1863.927	4.390	0.26
1866.391	4.000	0.26
1866.952	3.840	0.26
1867.51	4.010	0.26
1870.429	3.870	0.26
1871.104	4.090	0.26
1873.565	3.940	0.26
1874.357	3.930	0.26
1874.448	3.990	0.26
1877.071	3.870	0.26
1877.906	4.010	0.26
1879.693	3.870	0.26
1880.333	3.600	0.26
1881.144	3.920	0.26
1882.316	3.930	0.26
1883.659	3.740	0.26
1884.383	3.800	0.26
1886.592	3.720	0.26
1887.185	3.850	0.26
1889.302	3.480	0.26
1889.884	3.800	0.26
1892.012	3.660	0.26
1892.583	3.850	0.26
1893.79	3.680	0.26
1894.722	3.550	0.26
1895.282	3.890	0.26
1896.232	3.840	0.26
1897.432	3.710	0.26
1897.981	3.820	0.26
1898.673	4.180	0.26
1900.142	3.930	0.26
1900.68	4.270	0.26
1903.379	4.590	0.26
1903.394	3.810	0.26
1905.562	4.520	0.26
1906.078	4.400	0.26
1907.708	4.550	0.26
1908.438	4.870	0.26
1908.777	4.290	0.26
1909.792	4.350	0.26
1910.88	4.290	0.26
1911.476	4.200	0.26
1911.875	4.240	0.26
1913.905	4.290	0.26
1913.958	4.030	0.26
1917.136	4.010	0.26
1917.824	4.360	0.26
1919.093	4.410	0.26
1922.212	3.700	0.26
1922.683	4.060	0.26
1925.33	4.210	0.26
1926.504	4.060	0.26
1927.034	3.960	0.26
1928.456	4.160	0.26
1929.714	3.820	0.26
1931.184	3.800	0.26
1933.728	3.760	0.26
1935.333	3.700	0.26
1937.11	3.780	0.26
1938.231	3.710	0.26
1939.994	3.920	0.26
1940.55	4.160	0.26
1941.082	3.710	0.26
1942.877	3.730	0.26
1945.761	3.600	0.26
1946.108	4.370	0.26
1948.888	4.160	0.26
1949.221	4.480	0.26
1949.634	4.420	0.26
1951.527	4.230	0.26
1951.667	4.920	0.26
1952.485	4.370	0.26
1954.195	3.960	0.26
1954.411	4.060	0.26
1955.564	3.850	0.26
1955.62	4.250	0.26
1957.051	3.780	0.26
1957.557	3.980	0.26
1958.526	4.040	0.26
1959.014	3.920	0.26
1959.796	4.140	0.26
1960.04	3.870	0.26
1961.554	4.250	0.26
1962.7	3.940	0.26
1963.068	4.020	0.26
1964.582	3.860	0.26
1966.096	3.930	0.26
1967.566	4.030	0.26
1967.61	3.760	0.26
1969.306	3.740	0.26
1971.066	3.600	0.26
1972.826	3.500	0.26
1973.341	3.680	0.26
1974.488	3.720	0.26
1974.586	3.310	0.26
1976.264	3.420	0.26
1976.346	3.720	0.26
1978.613	3.690	0.26
1986.905	4.000	0.26
1986.937	4.270	0.26
1987.957	4.910	0.26
1990.424	4.200	0.26
1991.313	4.100	0.26
1992.184	4.340	0.26
1993.803	4.490	0.26
1993.944	4.310	0.26
1996	3.890	0.26
1997.455	4.400	0.26
1998.5	4.140	0.26
2001	3.970	0.26
2002.153	4.250	0.26
2003.5	4.020	0.26
2006	3.880	0.26
2007.393	4.120	0.26
2008.5	3.710	0.26
2011	3.800	0.26
2012.05	4.100	0.26
2012.607	4.110	0.26
2014.214	4.080	0.26
2015.418	3.740	0.26
2015.822	3.620	0.26
2015.914	3.570	0.26
2017.428	3.700	0.26
2019.036	3.780	0.26
2020.643	3.580	0.26
2022.155	3.540	0.26
2022.208	3.540	0.26
2023.744	3.450	0.26
2024.754	3.280	0.26
2024.982	3.560	0.26
2025.278	3.670	0.26
2026.813	3.610	0.26
2027.578	3.360	0.26
2027.674	3.330	0.26
2028.347	4.070	0.26
2029.881	3.880	0.26
2030.401	3.770	0.26
2031.415	3.590	0.26
2032.949	3.840	0.26
2033.057	4.040	0.26
2034.483	4.040	0.26
2035.748	4.020	0.26
2036.018	4.060	0.26
2037.552	4.120	0.26
2038.44	4.100	0.26
2038.873	4.000	0.26
2039.086	4.130	0.26
2040.62	4.210	0.26
2041.132	4.150	0.26
2041.724	4.030	0.26
2042.154	3.950	0.26
2043.689	3.510	0.26
2043.776	3.870	0.26
2047.643	3.910	0.26
2048.291	3.410	0.26
2049.065	3.790	0.26
2050.602	3.880	0.26
2051.71	3.760	0.26
2054.355	3.650	0.26
2056.521	3.630	0.26
2056.999	3.480	0.26
2057.3	3.810	0.26
2059.48	3.740	0.26
2059.644	4.110	0.26
2060.275	3.930	0.26
2062.321	4.560	0.26
2062.489	4.180	0.26
2063.39	4.070	0.26
2065.044	4.460	0.26
2065.262	4.330	0.26
2066.697	4.500	0.26
2068.203	4.490	0.26
2069.071	4.490	0.26
2070.006	4.500	0.26
2071.144	4.600	0.26
2072.362	4.660	0.26
2074.085	4.660	0.26
2074.968	4.150	0.26
2075.653	4.390	0.26
2077.026	4.200	0.26
2079.93	4.240	0.26
2079.967	4.650	0.26
2081.584	3.950	0.26
2082.605	4.450	0.26
2083.238	4.300	0.26
2085.209	4.210	0.26
2086.486	4.020	0.26
2086.546	4.160	0.26
2087.814	4.330	0.26
2089.676	3.690	0.26
2092.514	3.760	0.26
2093.023	4.110	0.26
2093.163	3.850	0.26
2094.268	3.790	0.26
2095.628	3.890	0.26
2096.14	3.660	0.26
2098.053	3.550	0.26
2098.395	3.810	0.26
2099.283	3.370	0.26
2101.439	3.660	0.26
2102.369	3.440	0.26
2105.033	3.760	0.26
2105.761	3.690	0.26
2107.527	3.990	0.26
2108.476	4.090	0.26
2109.079	3.830	0.26
2110.337	3.840	0.26
2113.105	3.870	0.26
2115.308	3.760	0.26
2115.872	3.830	0.26
2118.075	3.590	0.26
2118.423	3.620	0.26
2118.639	3.780	0.26
2121.406	3.860	0.26
2124.174	3.470	0.26
2124.652	4.180	0.26
2126.032	3.880	0.26
2127.766	4.120	0.26
2129.039	4.250	0.26
2130.101	4.020	0.26
2130.886	4.100	0.26
2131.573	4.090	0.26
2132.373	3.640	0.26
2132.732	4.010	0.26
2133.752	3.930	0.26
2134.579	3.570	0.26
2134.645	3.610	0.26
2135.93	3.430	0.26
2136.425	3.630	0.26
2136.884	3.290	0.26
2138.271	3.310	0.26
2139.045	2.810	0.26
2140.162	3.200	0.26
2140.396	3.060	0.26
2142.426	3.570	0.26
2143.709	3.560	0.26
2144.642	3.790	0.26
2144.689	3.960	0.26
2146.953	3.980	0.26
2147.216	3.890	0.26
2147.622	4.330	0.26
2149.216	4.510	0.26
2151.48	4.760	0.26
2153.743	4.490	0.26
2154.073	4.650	0.26
2155.624	4.770	0.26
2156.028	4.360	0.26
2156.56	4.660	0.26
2158.727	4.560	0.26
2159.269	4.470	0.26
2159.269	4.600	0.26
2159.539	4.340	0.26
2160.277	4.280	0.26
2161.228	4.480	0.26
2162.575	4.440	0.26
2162.739	4.240	0.26
2164.108	4.500	0.26
2165.349	4.380	0.26
2165.635	4.190	0.26
2167.98	4.280	0.26
2168.696	4.130	0.26
2170.61	4.220	0.26
2171.459	4.000	0.26
2171.757	4.040	0.26
2173.241	4.100	0.26
2174.919	4.070	0.26
2175.451	4.000	0.26
2177.877	3.730	0.26
2179.707	3.930	0.26
2180.938	3.650	0.26
2183.798	3.610	0.26
2184.292	3.780	0.26
2186.018	3.430	0.26
2186.524	3.620	0.26
2186.77	3.410	0.26
2189.128	3.680	0.26
2189.133	3.870	0.26
2189.984	3.570	0.26
2191.589	2.830	0.26
2193.756	3.700	0.26
2194.049	3.970	0.26
2196.509	4.290	0.26
2197.529	3.840	0.26
2198.272	4.290	0.26
2198.969	3.960	0.26
2200.514	4.300	0.26
2200.724	4.110	0.26
2201.439	4.250	0.26
2202.44	4.390	0.26
2203.069	4.000	0.26
2203.816	4.350	0.26
2204.365	3.940	0.26
2205.415	4.210	0.26
2206.193	4.020	0.26
2206.291	4.220	0.26
2207.76	3.910	0.26
2208.216	4.160	0.26
2208.57	4.060	0.26
2210.947	3.720	0.26
2213.265	3.870	0.26
2214.078	3.630	0.26
2215.93	3.650	0.26
2220.972	3.800	0.26
2221.182	4.150	0.26
2223.009	3.720	0.26
2224.228	3.940	0.26
2225.016	3.480	0.26
2226.945	3.680	0.26
2227.023	3.690	0.26
2227.273	3.690	0.26
2228.795	3.760	0.26
2229.03	3.500	0.26
2229.214	3.390	0.26
2231.037	3.660	0.26
2231.483	3.520	0.26
2231.84	3.680	0.26
2232.754	3.810	0.26
2233.052	3.970	0.26
2234.182	3.730	0.26
2234.517	3.810	0.26
2235.437	4.110	0.26
2236.327	4.040	0.26
2237.361	4.250	0.26
2237.916	4.080	0.26
2239.204	4.220	0.26
2240.535	4.440	0.26
2240.541	4.440	0.26
2242.827	4.540	0.26
2243.154	4.090	0.26
2243.72	4.250	0.26
2245.773	4.180	0.26
2246.852	4.090	0.26
2246.9	4.050	0.26
2248.392	3.890	0.26
2250.84	3.220	0.26
2250.878	3.970	0.26
2254.904	3.940	0.26
2255.737	3.240	0.26
2257.32	3.410	0.26
2259.78	3.310	0.26
2260.256	3.460	0.26
2262.503	3.560	0.26
2263.759	3.610	0.26
2264.7	3.880	0.26
2266.422	3.460	0.26
2269.268	3.210	0.26
2270.766	3.670	0.26
2272.08	3.980	0.26
2274.27	4.010	0.26
2274.54	3.910	0.26
2277.774	3.930	0.26
2279.459	4.390	0.26
2281.277	4.380	0.26
2282.165	4.290	0.26
2282.8	4.070	0.26
2284.781	4.060	0.26
2286.182	3.860	0.26
2286.839	4.480	0.26
2288.285	4.220	0.26
2289.299	4.120	0.26
2291.759	3.790	0.26
2291.788	3.650	0.26
2295.292	3.890	0.26
2296.679	3.390	0.26
2298.023	3.190	0.26
2298.796	3.560	0.26
2299.631	3.560	0.26
2301.405	3.070	0.26
2301.599	3.610	0.26
2302.299	3.590	0.26
2303.094	2.950	0.26
2305.558	3.610	0.26
2308.723	3.990	0.26
2311.495	3.190	0.26
2311.888	3.830	0.26
2315.072	4.120	0.26
2315.38	3.770	0.26
2321.742	4.010	0.26
2327.787	3.880	0.26
2328.65	3.780	0.26
2331.054	3.900	0.26
2334.32	3.830	0.26
2336.878	4.050	0.26
2336.898	3.660	0.26
2336.957	4.180	0.26
2338.074	3.750	0.26
2338.825	4.150	0.26
2338.942	4.030	0.26
2339.192	3.930	0.26
2340.309	3.570	0.26
2340.576	4.090	0.26
2340.771	4.140	0.26
2340.987	3.870	0.26
2341.427	3.610	0.26
2342.523	4.030	0.26
2342.544	3.700	0.26
2342.718	3.790	0.26
2343.031	3.730	0.26
2343.662	3.390	0.26
2344.469	3.780	0.26
2344.779	3.300	0.26
2345.075	3.560	0.26
2345.897	3.490	0.26
2346.416	3.680	0.26
2347.02	3.440	0.26
2347.176	3.550	0.26
2348.661	3.390	0.26
2349.888	3.510	0.26
2350.256	3.390	0.26
2351.941	3.450	0.26
2353.369	3.920	0.26
2353.582	3.420	0.26
2354.013	3.400	0.26
2357.006	3.750	0.26
2358.767	4.030	0.26
2359.596	4.250	0.26
2362.287	3.480	0.26
2362.709	3.980	0.26
2365.808	3.890	0.26
2365.822	3.870	0.26
2367.568	3.980	0.26
2369.328	4.170	0.26
2377.747	3.960	0.26
2378.763	3.430	0.26
2382.221	3.370	0.26
2391.138	3.550	0.26
2391.168	3.640	0.26
2395.263	3.080	0.26
2395.642	3.670	0.26
2398.734	3.010	0.26
2399.388	3.740	0.26
2400.115	3.770	0.26
2402.977	3.770	0.26
2404.503	3.890	0.26
2408.415	4.010	0.26
2409.633	3.670	0.26
2411.482	3.570	0.26
2415.075	3.410	0.26
2417.616	3.380	0.26
2419.851	3.810	0.26
2420.36	3.730	0.26
2422.02	3.690	0.26
2423.75	3.700	0.26
2424.189	3.270	0.26
2424.363	3.900	0.26
2426.358	3.690	0.26
2427.43	3.880	0.26
2428.052	3.940	0.26
2428.526	3.680	0.26
2430.497	4.840	0.26
2430.616	3.330	0.26
2432.853	4.470	0.26
2433.564	4.410	0.26
2435.007	4.480	0.26
2435.743	4.570	0.26
2436.018	4.170	0.26
2436.945	4.740	0.26
2438.307	4.540	0.26
2439.1	4.510	0.26
2440.87	3.830	0.26
2442.493	3.960	0.26
2443.433	4.260	0.26
2445.105	3.900	0.26
2445.562	4.100	0.26
2445.997	3.900	0.26
2447.717	4.100	0.26
2448.779	3.270	0.26
2450.603	4.200	0.26
2450.865	3.860	0.26
2453.601	3.830	0.26
2454.157	3.350	0.26
2455.702	3.460	0.26
2456.598	3.470	0.26
2457.449	3.390	0.26
2459.157	2.770	0.26
2459.596	3.720	0.26
2460.742	3.470	0.26
2462.593	3.810	0.26
2462.613	3.450	0.26
2464.035	3.500	0.26
2466.068	3.490	0.26
2467.327	3.130	0.26
2469.524	3.400	0.26
2470.62	3.420	0.26
2472.678	3.920	0.26
2476.112	3.970	0.26
2476.435	4.030	0.26
2477.205	3.900	0.26
2479.546	4.350	0.26
2479.89	4.190	0.26
2480.497	4.170	0.26
2482.98	4.540	0.26
2483.79	4.560	0.26
2486.415	4.860	0.26
2487.133	4.270	0.26
2487.371	4.760	0.26
2489.309	4.610	0.26
2490.422	3.840	0.26
2492.092	4.230	0.26
2493.712	4.030	0.26
2494.875	4.000	0.26
2497.239	3.870	0.26
2500.442	3.690	0.26
2500.907	3.780	0.26
2503.225	3.790	0.26
2503.58	3.870	0.26
2504.575	3.510	0.26
2506.87	3.840	0.26
2508.242	3.750	0.26
2508.739	4.000	0.26
2510.16	3.520	0.26
2511.359	4.050	0.26
2513.449	4.490	0.26
2514.239	4.740	0.26
2516.859	4.130	0.26
2516.989	4.710	0.26
2519.609	4.610	0.26
2519.738	4.780	0.26
2520.028	4.710	0.26
2522.359	4.500	0.26
2522.488	4.770	0.26
2522.763	4.510	0.26
2525.513	4.510	0.26
2526.607	4.370	0.26
2527.859	4.430	0.26
2528.315	4.640	0.26
2531.117	4.240	0.26
2533.032	4.070	0.26
2533.813	3.840	0.26
2533.919	4.340	0.26
2536.101	3.760	0.26
2536.721	4.180	0.26
2539.17	3.420	0.26
2540.323	2.980	0.26
2542.682	3.120	0.26
2546.855	3.370	0.26
2548.129	3.650	0.26
2549.916	3.420	0.26
2550.046	3.780	0.26
2551.098	3.790	0.26
2552.977	3.650	0.26
2553.614	3.770	0.26
2556.832	3.740	0.26
2558.96	3.680	0.26
2559.901	4.080	0.26
2560.008	4.040	0.26
2562.969	3.700	0.26
2562.978	4.010	0.26
2565.947	3.790	0.26
2566.037	3.780	0.26
2567.676	3.520	0.26
2568.917	3.720	0.26
2569.105	3.870	0.26
2571.887	3.950	0.26
2572.173	3.790	0.26
2574.613	3.450	0.26
2575.241	3.610	0.26
2576.392	3.400	0.26
2577.091	3.540	0.26
2578.309	3.190	0.26
2578.425	3.130	0.26
2579.568	3.540	0.26
2581.378	3.820	0.26
2582.045	3.260	0.26
2582.202	3.340	0.26
2584.446	3.420	0.26
2585.108	3.270	0.26
2586.8	3.580	0.26
2587.514	3.730	0.26
2588.051	3.460	0.26
2589.749	3.700	0.26
2590.582	3.740	0.26
2592.423	3.810	0.26
2592.699	4.190	0.26
2593.946	4.030	0.26
2595.491	3.500	0.26
2595.625	3.540	0.26
2595.649	4.110	0.26
2597.423	3.970	0.26
2598.403	3.990	0.26
2598.559	3.900	0.26
2600.216	4.050	0.26
2600.617	3.730	0.26
2601.548	3.870	0.26
2603.557	4.110	0.26
2603.67	4.110	0.26
2604.369	4.180	0.26
2605.055	4.250	0.26
2607.523	4.010	0.26
2607.619	3.960	0.26
2607.754	3.340	0.26
2608.664	4.220	0.26
2611.138	3.720	0.26
2611.375	3.690	0.26
2611.68	3.920	0.26
2612.272	4.120	0.26
2613.846	3.650	0.26
2615.227	3.630	0.26
2615.742	3.620	0.26
2616.196	3.670	0.26
2617.851	3.680	0.26
2617.908	3.120	0.26
2619.08	3.460	0.26
2620.214	3.500	0.26
2621.482	3.790	0.26
2621.785	3.680	0.26
2622.565	3.790	0.26
2623.624	3.370	0.26
2624.475	3.260	0.26
2625.405	3.220	0.26
2627.542	3.470	0.26
2628.139	3.490	0.26
2628.967	3.080	0.26
2629.308	3.880	0.26
2630.777	3.490	0.26
2631.398	3.450	0.26
2631.803	3.290	0.26
2632.56	3.860	0.26
2633.035	3.000	0.26
2635.468	3.840	0.26
2635.699	3.500	0.26
2635.813	3.990	0.26
2635.859	3.530	0.26
2636.41	3.570	0.26
2638.682	3.350	0.26
2639.065	3.970	0.26
2639.109	3.800	0.26
2639.132	3.530	0.26
2641.506	3.760	0.26
2642.034	4.200	0.26
2642.317	4.140	0.26
2642.43	3.700	0.26
2642.964	3.520	0.26
2644.329	3.630	0.26
2644.857	4.030	0.26
2645.57	4.630	0.26
2645.817	3.840	0.26
2646.82	4.170	0.26
2647.817	4.070	0.26
2648	3.960	0.26
2649.003	4.760	0.26
2650.3	3.950	0.26
2650.422	3.920	0.26
2650.768	4.340	0.26
2652.345	3.790	0.26
2652.378	4.430	0.26
2652.499	3.650	0.26
2653.701	3.720	0.26
2653.911	3.960	0.26
2654.9	3.670	0.26
2655.737	3.930	0.26
2655.753	4.290	0.26
2656.945	3.340	0.26
2657.401	3.570	0.26
2657.774	4.090	0.26
2659.129	3.610	0.26
2660.011	3.110	0.26
2660.891	3.550	0.26
2661.8	3.520	0.26
2662.504	3.680	0.26
2662.529	3.320	0.26
2664.356	3.590	0.26
2665.451	3.450	0.26
2665.747	3.850	0.26
2666.026	3.150	0.26
2666.416	3.350	0.26
2666.976	3.010	0.26
2668.68	4.050	0.26
2668.689	3.550	0.26
2668.703	3.150	0.26
2669.722	3.580	0.26
2669.778	3.240	0.26
2671.613	3.700	0.26
2672.022	3.250	0.26
2672.581	3.250	0.26
2673.3	3.400	0.26
2674.056	3.350	0.26
2674.546	3.880	0.26
2674.833	3.320	0.26
2675.345	2.830	0.26
2675.383	3.330	0.26
2676.733	3.450	0.26
2677.479	3.980	0.26
2677.9	3.070	0.26
2677.9	3.070	0.26
2678.185	3.120	0.26
2678.402	3.540	0.26
2679.41	3.310	0.26
2679.945	3.190	0.26
2680.412	4.020	0.26
2680.455	3.710	0.26
2680.455	3.710	0.26
2680.987	3.600	0.26
2682.087	3.560	0.26
2682.244	3.630	0.26
2682.244	3.630	0.26
2683.011	3.200	0.26
2683.011	3.200	0.26
2683.345	4.330	0.26
2683.789	3.690	0.26
2684.763	4.240	0.26
2684.877	3.580	0.26
2685.056	3.660	0.26
2685.056	3.590	0.26
2686.278	4.460	0.26
2686.333	3.590	0.26
2686.333	3.590	0.26
2686.592	3.750	0.26
2687.44	4.200	0.26
2688.378	4.100	0.26
2688.378	4.100	0.26
2688.763	4.180	0.26
2689.211	4.680	0.26
2690.117	4.460	0.26
2690.678	4.050	0.26
2690.678	4.050	0.26
2692.144	4.680	0.26
2692.196	4.110	0.26
2692.211	3.960	0.26
2692.211	3.960	0.26
2692.794	4.400	0.26
2693.233	3.700	0.26
2693.233	3.700	0.26
2694.591	3.880	0.26
2694.998	3.610	0.26
2695.077	4.330	0.26
2695.47	4.160	0.26
2695.534	3.800	0.26
2695.534	3.800	0.26
2697.8	3.670	0.26
2697.829	3.980	0.26
2698.01	4.220	0.26
2698.345	3.800	0.26
2698.345	3.800	0.26
2698.409	4.130	0.26
2700.133	3.640	0.26
2700.133	3.640	0.26
2700.603	3.610	0.26
2700.9	4.390	0.26
2700.9	4.390	0.26
2700.944	4.110	0.26
2701.067	3.830	0.26
2702.689	3.970	0.26
2702.689	3.970	0.26
2703.405	3.610	0.26
2703.456	4.370	0.26
2703.456	4.370	0.26
2703.877	4.280	0.26
2704.855	4.080	0.26
2705.245	4.200	0.26
2705.245	4.200	0.26
2706.011	3.900	0.26
2706.011	3.900	0.26
2706.207	3.600	0.26
2706.81	4.290	0.26
2707.453	4.200	0.26
2707.542	4.030	0.26
2709.009	4.000	0.26
2709.078	4.390	0.26
2709.078	4.390	0.26
2709.743	4.330	0.26
2709.894	4.310	0.26
2710.78	4.240	0.26
2711.251	4.330	0.26
2711.811	4.400	0.26
2711.889	4.240	0.26
2711.889	4.240	0.26
2712.335	4.300	0.26
2712.676	4.550	0.26
2713.167	3.790	0.26
2713.167	3.790	0.26
2713.474	4.350	0.26
2713.678	4.320	0.26
2713.678	4.320	0.26
2714.777	4.370	0.26
2715.609	4.790	0.26
2715.935	3.920	0.26
2716.233	4.470	0.26
2716.284	4.120	0.26
2717.278	3.580	0.26
2717.482	3.930	0.26
2718.481	4.520	0.26
2719.286	4.490	0.26
2719.645	4.220	0.26
2720.398	4.230	0.26
2720.985	4.200	0.26
2721.528	4.810	0.26
2722.551	4.710	0.26
2722.833	4.070	0.26
2723.517	4.170	0.26
2724.49	3.970	0.26
2724.576	4.570	0.26
2725.731	3.410	0.26
2725.817	4.040	0.26
2726.636	4.220	0.26
2727.293	3.960	0.26
2727.623	4.600	0.26
2727.993	3.840	0.26
2728.05	3.250	0.26
2729.082	4.000	0.26
2729.755	3.820	0.26
2730.671	4.210	0.26
2730.797	3.480	0.26
2731.498	3.700	0.26
2731.528	3.590	0.26
2732.874	3.500	0.26
2733.718	4.150	0.26
2734.426	3.220	0.26
2735.001	3.310	0.26
2735.612	3.710	0.26
2736.068	3.560	0.26
2736.766	3.900	0.26
2738.505	3.320	0.26
2739.33	3.440	0.26
2739.814	3.400	0.26
2740.222	3.470	0.26
2741.959	3.320	0.26
2742.143	3.540	0.26
2742.592	3.350	0.26
2743.121	3.320	0.26
2744.223	3.120	0.26
2745.273	3.300	0.26
2745.909	3.530	0.26
2746.019	3.100	0.26
2747.485	3.240	0.26
2748.587	3.000	0.26
2748.627	3.310	0.26
2748.673	3.440	0.26
2749	3.820	0.26
2750.747	3.310	0.26
2751.901	3.370	0.26
2752.266	4.000	0.26
2752.395	3.290	0.26
2753.572	3.830	0.26
2754.009	3.450	0.26
2754.713	3.370	0.26
2755.204	3.770	0.26
2755.214	3.300	0.26
2756.837	3.710	0.26
2757.271	3.340	0.26
2757.612	3.290	0.26
2758.47	3.820	0.26
2758.528	3.120	0.26
2758.528	3.450	0.26
2760.102	3.970	0.26
2760.51	3.440	0.26
2760.533	3.650	0.26
2761.842	3.510	0.26
2761.842	3.610	0.26
2763.367	4.100	0.26
2763.408	3.450	0.26
2763.795	3.670	0.26
2764.02	3.840	0.26
2764.824	3.410	0.26
2765	3.730	0.26
2765.167	3.750	0.26
2766.404	3.640	0.26
2767.105	3.770	0.26
2767.211	3.700	0.26
2768.015	3.240	0.26
2768.509	3.540	0.26
2768.636	3.540	0.26
2769.783	3.520	0.26
2770.115	3.120	0.26
2771.026	3.540	0.26
2772.018	3.310	0.26
2772.345	3.340	0.26
2773.084	3.090	0.26
2774.014	3.600	0.26
2774.188	3.630	0.26
2774.908	3.220	0.26
2775.527	3.210	0.26
2777.001	3.280	0.26
2777.47	3.480	0.26
2777.537	3.470	0.26
2779.035	3.150	0.26
2779.084	3.120	0.26
2779.988	3.160	0.26
2780.478	3.410	0.26
2781.248	3.340	0.26
2782.079	3.130	0.26
2782.544	3.360	0.26
2782.975	3.060	0.26
2783.597	3.330	0.26
2784.96	3.120	0.26
2785.393	3.520	0.26
2786.035	3.410	0.26
2786.131	3.330	0.26
2788.299	3.350	0.26
2789.245	3.310	0.26
2789.823	3.560	0.26
2789.902	3.870	0.26
2790.844	3.140	0.26
2792.455	3.210	0.26
2793.276	3.410	0.26
2793.672	3.690	0.26
2794.98	3.290	0.26
2795.084	3.200	0.26
2795.666	3.680	0.26
2795.727	3.590	0.26
2797.443	4.030	0.26
2797.525	3.700	0.26
2797.714	3.900	0.26
2798.177	3.890	0.26
2798.876	3.780	0.26
2800.345	3.200	0.26
2800.628	4.030	0.26
2801.213	3.740	0.26
2801.343	3.900	0.26
2801.444	3.680	0.26
2802.086	4.060	0.26
2803.078	4.230	0.26
2804.206	4.050	0.26
2804.291	3.680	0.26
2804.984	3.750	0.26
2805.297	3.890	0.26
2805.585	4.170	0.26
2806.264	2.960	0.26
2807.33	3.510	0.26
2807.868	4.120	0.26
2808.637	4.080	0.26
2808.691	4.060	0.26
2809.021	3.390	0.26
2811.209	3.860	0.26
2811.883	3.580	0.26
2812.173	3.750	0.26
2812.544	3.870	0.26
2812.774	3.550	0.26
2814.128	3.370	0.26
2815.324	3.820	0.26
2816.451	3.760	0.26
2817.396	3.740	0.26
2817.396	3.930	0.26
2819.234	3.300	0.26
2819.44	3.690	0.26
2820.359	3.620	0.26
2820.79	3.540	0.26
2821.749	3.460	0.26
2823.556	3.590	0.26
2824.266	3.370	0.26
2824.34	3.150	0.26
2826.102	2.970	0.26
2826.848	3.290	0.26
2828.174	3.450	0.26
2829.447	3.380	0.26
2829.696	3.800	0.26
2830.454	2.980	0.26
2831.787	3.440	0.26
2832.048	3.530	0.26
2833.5	3.750	0.26
2833.649	3.290	0.26
2834.343	3.490	0.26
2834.348	3.970	0.26
2835.879	4.070	0.26
2836.206	3.080	0.26
2836.639	3.410	0.26
2836.844	3.620	0.26
2838.763	3.220	0.26
2839.067	3.760	0.26
2839.34	3.600	0.26
2841.112	4.290	0.26
2841.321	3.280	0.26
2841.588	3.700	0.26
2842.087	3.180	0.26
2842.5	3.510	0.26
2843.878	3.830	0.26
2844.109	3.620	0.26
2844.334	3.660	0.26
2845.5	3.740	0.26
2846.344	4.140	0.26
2846.435	3.670	0.26
2846.581	3.400	0.26
2846.629	3.540	0.26
2848.5	3.600	0.26
2848.992	3.650	0.26
2849.15	3.890	0.26
2849.576	3.600	0.26
2851.5	3.860	0.26
2851.577	4.140	0.26
2851.587	3.640	0.26
2851.671	3.720	0.26
2851.823	3.780	0.26
2854.427	3.730	0.26
2854.589	3.830	0.26
2854.838	3.480	0.26
2854.974	3.540	0.26
2855	3.180	0.26
2857.95	3.400	0.26
2858.088	3.590	0.26
2858.561	3.890	0.26
2859	3.550	0.26
2859.507	3.930	0.26
2860.413	4.010	0.26
2861.311	3.510	0.26
2861.417	3.120	0.26
2861.539	3.250	0.26
2862.283	3.430	0.26
2863	3.590	0.26
2864.746	3.330	0.26
2864.947	4.090	0.26
2866.006	3.260	0.26
2867	3.290	0.26
2868.032	3.470	0.26
2868.074	3.410	0.26
2869.48	3.710	0.26
2869.728	3.210	0.26
2870.737	3.280	0.26
2871	3.350	0.26
2871.393	3.670	0.26
2873.367	3.410	0.26
2873.825	3.590	0.26
2874.542	3.460	0.26
2874.628	3.210	0.26
2874.997	3.640	0.26
2876.397	3.420	0.26
2877.583	3.490	0.26
2877.884	3.330	0.26
2878.481	3.880	0.26
2879.427	3.480	0.26
2881.205	3.890	0.26
2881.965	3.870	0.26
2882.457	3.620	0.26
2883.665	3.850	0.26
2884.395	3.350	0.26
2884.895	4.140	0.26
2885.449	3.800	0.26
2885.487	3.670	0.26
2888.5	3.580	0.26
2888.532	4.260	0.26
2888.869	3.680	0.26
2890.778	3.580	0.26
2891.472	3.230	0.26
2891.76	4.050	0.26
2892.302	3.520	0.26
2893.552	3.240	0.26
2893.926	3.570	0.26
2894.24	3.600	0.26
2894.444	3.530	0.26
2894.95	4.150	0.26
2895.606	3.530	0.26
2897.007	3.700	0.26
2897.074	3.480	0.26
2897.416	3.530	0.26
2898.14	4.040	0.26
2898.975	3.520	0.26
2900.222	3.280	0.26
2900.388	3.450	0.26
2901.331	3.770	0.26
2902.344	3.510	0.26
2903.36	3.340	0.26
2903.371	3.250	0.26
2904.551	3.640	0.26
2905.814	3.610	0.26
2905.936	3.510	0.26
2906.469	3.310	0.26
2906.667	3.240	0.26
2907.929	3.830	0.26
2909.381	3.810	0.26
2909.616	3.330	0.26
2910	2.880	0.26
2911.307	3.900	0.26
2912.163	3.550	0.26
2912.763	3.520	0.26
2912.904	3.550	0.26
2913.333	3.390	0.26
2914.667	3.790	0.26
2915.276	3.690	0.26
2915.751	3.000	0.26
2916.067	3.400	0.26
2916.667	3.530	0.26
2918	3.740	0.26
2918.598	3.520	0.26
2919.4	3.540	0.26
2920	2.830	0.26
2921.334	3.980	0.26
2921.444	3.510	0.26
2922.733	3.440	0.26
2923.333	3.640	0.26
2924.31	3.500	0.26
2924.71	4.220	0.26
2926.2	3.820	0.26
2926.839	3.440	0.26
2927.34	3.870	0.26
2928.258	4.270	0.26
2929.678	3.580	0.26
2929.748	3.580	0.26
2930.37	3.760	0.26
2931.807	4.320	0.26
2933.226	3.310	0.26
2933.297	3.450	0.26
2933.401	3.770	0.26
2933.935	3.890	0.26
2934.593	3.340	0.26
2936.138	3.900	0.26
2936.586	3.730	0.26
2936.758	3.410	0.26
2937.484	3.440	0.26
2939.81	3.330	0.26
2940.145	2.990	0.26
2940.145	3.520	0.26
2940.665	3.720	0.26
2941.032	3.110	0.26
2941.171	3.180	0.26
2943.034	2.980	0.26
2943.532	3.000	0.26
2944.459	3.330	0.26
2944.581	3.070	0.26
2945.193	3.570	0.26
2946.447	3.290	0.26
2947.694	3.270	0.26
2948.062	3.020	0.26
2949.603	3.510	0.26
2950.172	3.090	0.26
2951.5	2.910	0.26
2953.112	3.420	0.26
2953.453	2.970	0.26
2953.989	3.790	0.26
2954.012	3.110	0.26
2954.066	3.480	0.26
2954.938	3.080	0.26
2956.734	3.180	0.26
2957.252	3.690	0.26
2957.498	3.240	0.26
2957.619	3.300	0.26
2958.375	3.170	0.26
2959.393	3.530	0.26
2960.058	3.350	0.26
2960.438	2.820	0.26
2960.565	3.580	0.26
2961.813	3.110	0.26
2961.875	3.710	0.26
2962.387	3.400	0.26
2963.385	3.620	0.26
2963.512	2.910	0.26
2964.562	3.520	0.26
2965.25	3.530	0.26
2965.375	3.590	0.26
2966.458	3.380	0.26
2966.712	3.480	0.26
2966.809	3.730	0.26
2968	3.500	0.26
2968.815	3.860	0.26
2969.037	4.020	0.26
2969.665	3.600	0.26
2970.415	3.600	0.26
2972.889	3.790	0.26
2973.157	3.750	0.26
2973.185	4.090	0.26
2976.148	3.630	0.26
2976.649	3.470	0.26
2976.963	3.330	0.26
2977.334	4.130	0.26
2978.251	4.010	0.26
2978.301	3.560	0.26
2980.107	3.710	0.26
2980.393	3.650	0.26
2980.66	3.740	0.26
2981.322	3.790	0.26
2981.662	3.560	0.26
2981.854	4.200	0.26
2982.069	3.470	0.26
2984.758	3.530	0.26
2985.21	3.740	0.26
2985.5	3.390	0.26
2985.965	3.680	0.26
2986.05	3.890	0.26
2986.372	2.820	0.26
2986.634	3.990	0.26
2987.853	3.120	0.26
2989.76	3.300	0.26
2990.675	3.670	0.26
2990.948	3.160	0.26
2991.413	3.730	0.26
2992	4.030	0.26
2993.628	3.220	0.26
2993.964	3.360	0.26
2994.061	3.250	0.26
2994.291	3.540	0.26
2994.946	3.410	0.26
2994.955	3.640	0.26
2996.582	3.190	0.26
2996.835	3.630	0.26
2997.046	3.640	0.26
2997.237	3.480	0.26
2997.564	3.610	0.26
2998.324	3.820	0.26
3000.182	3.620	0.26